# Kinetic Energy
0 87.244 355.685 837.627 1542.39 2406.71 3560.77 4822.05 6426.53 8033.44 9946.07 12165.1 15257.4 18038 20690.4 23864.2 27960 32663.4 36961.1 42777.1 48365.3 55598.1 61999.5 68872.7 76643 86448.3 97552.7 112579 131360 157323 186801 225346 268751 323185 382977 456652 507824 532917 543179 494412 425519 362556 317041 282397 250766 228001 207857 194598 187505 181881 178130 177944 177972 183104 180858 180369 178446 173684 170094 166722 161544 157437 150433 147665 144896 144022 143138 145014 142364 139322 138078 134769 131663 129949 129943 128282 131927 139185 142002 137339 128062 122350 119531 120000 120127 121887 124823 131265 138120 142243 145706 150745 153568 154415 150906 148022 146539 143747 139690 135338 131364 129761 128396 126705 124101 119941 117494 115612 113430 110809 109929 109974 111482 110879 111153 110429 110147 109720 111216 112638 114990 117325 120616 123163 125118 127049 128994 130976 129614 128356 127635 126761 126676 126375 125709 123037 120645 120367 119810 120478 121526 122441 121009 120000 118473 119615 119839 121741 122431 122402 123460 123919 122430 121942 119262 118729 118939 116751 113836 112645 111231 110770 110017 109107 108019 106064 104734 102729 100966 101350 102179 103244 105264 104769 104377 104496 104639 104617 105976 107273 109316 111323 113857 116650 118777 121237 120953 120714 120393 121604 121975 123557 123100 122106 117519 114324 109933 106169 104291 102181 101143 99880.6 97921.7 96544.7 96035.2 95555.3 95485.7 96505.6 97612.3 98619.7 99995.9 101484 103389 105175 105323 104865 103000 101898 100674 98129 96044.5 94387.7 93769.1 92395.9 90713.6 89280.7 89408.3 88659.1 88727.4 89374.1 89204.2 89634.8 90023.6 89968.1 91952.8 94435 97975.9 101174 103507 106363 108779 111219 111581 112677 112327 109762 107435 105898 104455 101865 98947 97705.2 98032.2 98564.6 100902 102523 102662 104131 105781 106979 107959 109022 113983 112593 109486 108175 109646 108932 105475 104972 104490 105037 104665 104666 104289 102670 101314 99781.1 98356 98077.5 98372.3 98626.7 98135.6 97117.9 96337.6 96746.2 96611.5 97041.6 97403.3 97932.8 97960 96944.8 95635 94943.9 95300.3 95200.8 94859.5 94220.5 92505.1 91364.3 90572.2 
