# Kinetic Energy (MPI+Threads)
0 2.12362 8.62949 19.9945 37.3465 63.5135 106.731 157.713 159.985 192.122 261.314 314.65 355.314 348.473 364.152 414.328 501.701 596.611 641.654 717.485 801.615 844.191 911.841 981.936 1108.27 1223.86 1363.28 1439.43 1558.56 1732.74 1936.36 1995.55 2076.61 2245.65 2454.14 2671.8 2888.36 3061.93 3299.17 3548.54 3764.08 4021.41 4270.42 4474.69 4713.39 4914.09 5289.89 5565.89 5862.02 6206.76 6599.72 7084.81 7526.19 8050.12 8684.75 9309.3 10037.4 10427.1 10876.5 11432 12035.4 12793.4 13483.9 14270.2 15184.2 16343.2 17437 18966.2 21158.8 23640.3 26353.4 27849.3 29304.7 30041.1 30207.1 29334.6 27922 26277 24968.7 24066 23299.4 22650.7 21898.3 21418.1 21043.1 20227 19473 18714.3 17937 17162.8 16324.7 15731 15200.4 14521.3 14039.3 13605 13171.4 12623.8 12120 11535.7 11128.4 10855.9 10465.6 10075.6 9739.85 9426.31 9118.47 8951.7 8836.04 8777.89 8756.31 8778.15 8788.36 8830.21 8887.84 8908.29 8936.98 8926.42 8940.96 8866.1 8869.97 8905.57 8923.53 8839.95 8774.92 8851.12 9069.12 9079.53 9153.36 9108.26 8986.27 8979.58 8832.02 8753.51 8758.64 8831.7 8906.83 8902.96 8952.1 8974.81 8835.39 8605.28 8462.94 8409.58 8457.14 8439.71 8420.16 8409.21 8446.68 8361.25 8422.57 8400.05 8286.46 8210.33 8016.53 7979.77 7888.16 7777.26 7820.98 7885.5 7861.18 7880.73 8000.4 8032.77 8081.49 8175.78 8144.14 8111.01 8135.75 8202.37 8336.02 8504.42 8753.48 9096.96 9175.97 9237.22 9150.61 9115.45 9134.45 9300.88 9493.72 9694.75 9886.25 9755.1 9674.68 9556.01 9474.4 9558.67 9555.86 9394.61 9273.17 9010.49 8849.96 8556.45 8291.26 8037.75 7903.48 7871.05 7804.39 7626.1 7585.16 7579.97 7581.39 7523.12 7467.62 7394.09 7273.12 7234.62 7120.76 6990.86 6847.68 6731.7 6667.73 6574.72 6623.26 6608.05 6573.46 6548.36 6531.42 6528.02 6573.79 6459.52 6408 6489.9 6581.13 6492.73 6420.67 6434.88 6448.17 6557.31 6658.91 6691.78 6740.11 6819.63 7035.8 7123.9 7116.39 7045.78 7056.56 7097.07 7138.15 7109.85 7113.49 7161.92 7279.25 7482.83 7560.35 7706.11 7864.62 7911.55 7883.44 7798.61 7807.98 7851.63 7954.55 8034.67 8108.39 8116.69 8273.05 8324.09 8454.7 8630.75 8649.77 8471.41 8458.03 8331.65 8255.17 8130.7 8100.65 8140.85 8017.6 7813.03 7699.31 7650 7596.79 7563.85 7498.85 7405.65 7360.59 7349.68 7261.83 7173.93 7009.02 6903.44 6825.72 6881.59 6892.42 6819.88 6804.19 6890.59 7027.17 7252.37 7411.93 7500.23 7654.69 7778.77 7939.64 8103.31 8193.7 8373.85 8593.5 
